
     ========================================================
     |                                                      |
     |        HYDROLIGHT Version 5.0  (MAIN CODE)           |
     |       Copyright (c) 2008 by Curtis D. Mobley         |
     |                                                      |
     |     This copy of HE5 is licensed solely to           |
     |   Jim Mueller, Center HydroOptics & Remote Sensing   |
     |                                                      |
     |     S/N X9355325                                     |
     |                                                      |
     | THIS PROGRAM IS EXPERIMENTAL AND IS LICENSED "AS IS" |
     | WITHOUT REPRESENTATION OF WARRANTY OF ANY KIND,      |
     | EITHER EXPRESS OR IMPLIED.  THE ENTIRE RISK AS TO    |
     | THE QUALITY AND PERFORMANCE OF HYDROLIGHT IS WITH    |
     | THE USER.  HYDROLIGHT IS NOT FAULT TOLERANT.         |
     |                                                      |
     ========================================================



  RUN TITLE:  c = 2.19 z=100 (02/27/2015 17:58)                                                                                       

     Run started on 02/27/2015 at 17:58:52.1


  The radiance distribution is computed on the following (Theta,Phi,Depth,Wavelength) grid:

         I     Theta      Mu           J      Phi          K      zeta       z           L    Lambda
               (deg)                         (deg)                          (m)                (nm)

         1    87.500    0.0436         1      0.00         1               0.000         1    532.00
         2    80.000    0.1730         2     15.00         2               0.010                    
         3    70.000    0.3407         3     30.00         3               1.000                    
         4    60.000    0.4981         4     45.00         4               1.010                    
         5    50.000    0.6403         5     60.00         5               2.000                    
         6    40.000    0.7631         6     75.00         6               2.010                    
         7    30.000    0.8627         7     90.00         7               3.000                    
         8    20.000    0.9361         8    105.00         8               3.010                    
         9    10.000    0.9811         9    120.00         9               4.000                    
        10     0.000    0.9981        10    135.00        10               4.010                    
                                      11    150.00        11               5.000                    
                                      12    165.00        12               5.010                    
                                      13    180.00        13               6.000                    
                                      14    195.00        14               6.010                    
                                      15    210.00        15               7.000                    
                                      16    225.00        16               7.010                    
                                      17    240.00        17               8.000                    
                                      18    255.00        18               8.010                    
                                      19    270.00        19               9.000                    
                                      20    285.00        20               9.010                    
                                      21    300.00        21              10.000                    
                                      22    315.00        22              10.010                    
                                      23    330.00        23              11.000                    
                                      24    345.00        24              11.010                    
                                                          25              12.000                    
                                                          26              12.010                    
                                                          27              13.000                    
                                                          28              13.010                    
                                                          29              14.000                    
                                                          30              14.010                    
                                                          31              15.000                    
                                                          32              15.010                    
                                                          33              16.000                    
                                                          34              16.010                    
                                                          35              17.000                    
                                                          36              17.010                    
                                                          37              18.000                    
                                                          38              18.010                    
                                                          39              19.000                    
                                                          40              19.010                    
                                                          41              20.000                    
                                                          42              20.010                    
                                                          43              21.000                    
                                                          44              21.010                    
                                                          45              22.000                    
                                                          46              22.010                    
                                                          47              23.000                    
                                                          48              23.010                    
                                                          49              24.000                    
                                                          50              24.010                    
                                                          51              25.000                    
                                                          52              25.010                    
                                                          53              26.000                    
                                                          54              26.010                    
                                                          55              27.000                    
                                                          56              27.010                    
                                                          57              28.000                    
                                                          58              28.010                    
                                                          59              29.000                    
                                                          60              29.010                    
                                                          61              30.000                    
                                                          62              30.010                    
                                                          63              31.000                    
                                                          64              31.010                    
                                                          65              32.000                    
                                                          66              32.010                    
                                                          67              33.000                    
                                                          68              33.010                    
                                                          69              34.000                    
                                                          70              34.010                    
                                                          71              35.000                    
                                                          72              35.010                    
                                                          73              36.000                    
                                                          74              36.010                    
                                                          75              37.000                    
                                                          76              37.010                    
                                                          77              38.000                    
                                                          78              38.010                    
                                                          79              39.000                    
                                                          80              39.010                    
                                                          81              40.000                    
                                                          82              40.010                    
                                                          83              41.000                    
                                                          84              41.010                    
                                                          85              42.000                    
                                                          86              42.010                    
                                                          87              43.000                    
                                                          88              43.010                    
                                                          89              44.000                    
                                                          90              44.010                    
                                                          91              45.000                    
                                                          92              45.010                    
                                                          93              46.000                    
                                                          94              46.010                    
                                                          95              47.000                    
                                                          96              47.010                    
                                                          97              48.000                    
                                                          98              48.010                    
                                                          99              49.000                    
                                                         100              49.010                    
                                                         101              50.000                    
                                                         102              50.010                    
                                                         103              51.000                    
                                                         104              51.010                    
                                                         105              52.000                    
                                                         106              52.010                    
                                                         107              53.000                    
                                                         108              53.010                    
                                                         109              54.000                    
                                                         110              54.010                    
                                                         111              55.000                    
                                                         112              55.010                    
                                                         113              56.000                    
                                                         114              56.010                    
                                                         115              57.000                    
                                                         116              57.010                    
                                                         117              58.000                    
                                                         118              58.010                    
                                                         119              59.000                    
                                                         120              59.010                    
                                                         121              60.000                    
                                                         122              60.010                    
                                                         123              61.000                    
                                                         124              61.010                    
                                                         125              62.000                    
                                                         126              62.010                    
                                                         127              63.000                    
                                                         128              63.010                    
                                                         129              64.000                    
                                                         130              64.010                    
                                                         131              65.000                    
                                                         132              65.010                    
                                                         133              66.000                    
                                                         134              66.010                    
                                                         135              67.000                    
                                                         136              67.010                    
                                                         137              68.000                    
                                                         138              68.010                    
                                                         139              69.000                    
                                                         140              69.010                    
                                                         141              70.000                    
                                                         142              70.010                    
                                                         143              71.000                    
                                                         144              71.010                    
                                                         145              72.000                    
                                                         146              72.010                    
                                                         147              73.000                    
                                                         148              73.010                    
                                                         149              74.000                    
                                                         150              74.010                    
                                                         151              75.000                    
                                                         152              75.010                    
                                                         153              76.000                    
                                                         154              76.010                    
                                                         155              77.000                    
                                                         156              77.010                    
                                                         157              78.000                    
                                                         158              78.010                    
                                                         159              79.000                    
                                                         160              79.010                    
                                                         161              80.000                    
                                                         162              80.010                    
                                                         163              81.000                    
                                                         164              81.010                    
                                                         165              82.000                    
                                                         166              82.010                    
                                                         167              83.000                    
                                                         168              83.010                    
                                                         169              84.000                    
                                                         170              84.010                    
                                                         171              85.000                    
                                                         172              85.010                    
                                                         173              86.000                    
                                                         174              86.010                    
                                                         175              87.000                    
                                                         176              87.010                    
                                                         177              88.000                    
                                                         178              88.010                    
                                                         179              89.000                    
                                                         180              89.010                    
